lambda_air(A)  lambda_vac(A)  FWHM(A)  Flux(10^-16^erg/s/cm2/{AA})
  5865.4673    5867.0930  0.1448    0.8422
  5866.0039    5867.6300  0.1585    0.5305
  5867.2676    5868.8940  0.1355    0.3166
  5867.5522    5869.1790  0.1428    1.0304
  5868.3135    5869.9400  0.1538    0.4540
  5869.2783    5870.9050  0.1402    0.3284
  5869.4819    5871.1090  0.1769    0.2300
  5872.7358    5874.3640  0.1522    0.4221
  5874.9370    5876.5650  0.0831    0.1830
  5875.3892    5877.0180  0.1470    0.1970
  5887.1353    5888.7670  0.1920    0.3209
  5888.1924    5889.8240  0.1400    2.2385
  5889.9590    5891.5910  0.1518   11.2867
  5894.4717    5896.1050  0.1937    0.6972
  5895.9321    5897.5660  0.1499    6.7611
  5903.3706    5905.0070  0.1627    0.2212
  5903.5771    5905.2130  0.1211    0.1899
  5906.7051    5908.3420  0.1569    0.5899
  5915.3076    5916.9470  0.1529    1.8282
  5924.7295    5926.3710  0.1546    0.9016
  5932.8643    5934.5080  0.2002    1.8154
  5945.9360    5947.5830  0.1498    0.8174
  5953.3589    5955.0080  0.1931    1.0486
  5953.4897    5955.1390  0.2054    1.0745
  5970.2822    5971.9360  0.1542    0.6083
  5976.9619    5978.6180  0.1410    0.6896
  5977.2070    5978.8630  0.1469    0.6501
  5997.7651    5999.4260  0.1953    0.3455
  6003.7510    6005.4140  0.1504    0.3993
  6004.0859    6005.7490  0.1514    0.3823
  6028.3755    6030.0450  0.2566    0.1804
  6028.5088    6030.1780  0.1291    0.1841
  6033.7905    6035.4610  0.1257    0.2747
  6034.2192    6035.8900  0.1570    0.2135
  6067.1567    6068.8370  0.1255    0.1783
  6067.6831    6069.3630  0.1593    0.1741
  6099.4585    6101.1470  0.1793    0.1492
  6099.7695    6101.4580  0.1479    0.1462
  6103.9312    6105.6210  0.1288    0.1586
  6104.5850    6106.2750  0.1413    0.1570
  6136.5508    6138.2490  0.0681    0.1472
  6136.7798    6138.4780  0.1727    0.2248
  6138.9849    6140.6840  0.2524    0.1601
  6139.4668    6141.1660  0.1594    0.4040
  6140.0938    6141.7930  0.0584    0.1476
  6140.5542    6142.2540  0.0428    0.1242
  6143.3799    6145.0800  0.1598    0.2021
  6144.4819    6146.1820  0.1592    0.4931
  6150.9390    6152.6410  0.1567    0.2495
  6155.9878    6157.6910  0.1578    0.1569
  6156.7739    6158.4780  0.1500    0.2211
  6158.1890    6159.8930  0.1836    0.2666
  6169.5361    6171.2430  0.2274    0.1840
  6170.6460    6172.3540  0.1468    1.1814
  6176.2949    6178.0040  0.2481    0.3336
  6184.3096    6186.0210  0.4889    0.1529
  6192.9438    6194.6570  0.1823    0.3464
  6202.7280    6204.4440  0.1699    0.9862
  6213.0674    6214.7860  0.1547    0.4548
  6221.7759    6223.4970  0.2358    0.8318
  6234.3042    6236.0290  0.1453    1.4175
  6235.6836    6237.4090  0.1526    0.9273
  6235.9653    6237.6900  0.1609    1.8141
  6236.9941    6238.7190  0.1661    0.4200
  6237.4194    6239.1450  0.1528    0.6502
  6240.2407    6241.9670  0.2065    0.5015
  6241.6987    6243.4250  0.1464    0.6263
  6243.5649    6245.2920  0.1849    0.4854
  6243.7280    6245.4550  0.2612    0.4550
  6247.3672    6249.0950  0.2305    0.1684
  6248.0205    6249.7490  0.1875    0.2414
  6256.9502    6258.6810  0.1974    0.4147
  6257.9702    6259.7010  0.1523    3.5662
  6259.1895    6260.9210  0.2683    0.1637
  6261.7549    6263.4870  0.1797    0.2517
  6262.7471    6264.4790  0.3370    0.1399
  6262.8452    6264.5780  0.1710    0.1450
  6265.2231    6266.9560  0.1923    1.1453
  6268.2793    6270.0130  0.1356    0.2844
  6268.5396    6270.2730  0.1586    0.2512
  6278.0962    6279.8330  0.1685    0.5680
  6287.4429    6289.1820  0.1585    2.9576
  6289.0479    6290.7870  0.1443    0.1657
  6289.4380    6291.1770  0.1843    0.1364
  6290.3550    6292.0950  0.1249    0.1392
  6295.9155    6297.6570  0.1327    0.1814
  6296.2949    6298.0360  0.1406    0.1535
  6297.9116    6299.6530  0.1635    1.2702
  6300.3086    6302.0510  0.1625  125.9882
  6301.2817    6303.0240  0.6637    0.1822
  6306.9336    6308.6780  0.2193    3.0754
  6308.5566    6310.3010  0.1885    0.1536
  6321.4087    6323.1570  0.1537    1.2701
  6329.7842    6331.5340  0.2084    1.5794
  6329.9277    6331.6780  0.2427    1.6699
  6342.8687    6344.6220  0.1247    0.1289
  6343.2407    6344.9950  0.1310    0.1306
  6348.5449    6350.3000  0.1535    0.8962
  6356.1846    6357.9420  0.1617    1.1168
  6356.4526    6358.2100  0.1592    1.0526
  6361.3022    6363.0610  0.1884    0.1363
  6363.7827    6365.5420  0.1641   41.0899
  6379.3218    6381.0850  0.1927    0.5185
  6386.2505    6388.0160  0.1525    0.6283
  6386.6230    6388.3890  0.1506    0.5954
  6413.7734    6415.5460  0.2571    0.2257
  6413.8892    6415.6620  0.2428    0.2024
  6420.0757    6421.8500  0.1454    0.3493
  6420.5601    6422.3350  0.1613    0.3252
  6425.7524    6427.5280  0.0941    0.1340
  6451.9526    6453.7360  0.1119    0.1771
  6452.2310    6454.0140  0.1498    0.1640
  6455.9927    6457.7770  0.1659    0.1243
  6457.7412    6459.5260  0.1457    0.2096
  6458.3457    6460.1310  0.1915    0.1912
  6463.5298    6465.3160  0.1698    0.7228
  6463.8008    6465.5870  0.1767    0.3495
  6464.8960    6466.6830  0.1516    0.2100
  6465.9468    6467.7340  0.1827    1.3541
  6466.9248    6468.7120  0.1407    0.2056
  6470.1528    6471.9410  0.1596    0.5783
  6470.9849    6472.7730  0.1651    1.6028
  6477.9214    6479.7110  0.1580    0.6328
  6494.1201    6495.9150  0.1272    0.1031
  6494.4170    6496.2120  0.1455    0.1222
  6497.5312    6499.3270  0.2208    0.4350
  6498.7368    6500.5320  0.1574    4.2749
  6499.3955    6501.1910  0.2018    0.1459
  6500.1323    6501.9280  0.1407    0.1494
  6502.6094    6504.4060  0.1722    0.1396
  6502.7207    6504.5170  0.2591    0.1437
  6504.9990    6506.7960  0.2512    1.0114
  6513.8545    6515.6540  0.1514    0.2833
  6514.1514    6515.9510  0.1541    0.2727
  6522.4326    6524.2350  0.1662    0.9594
  6533.0498    6534.8550  0.1734    3.2824
  6540.2812    6542.0880  0.1268    0.1345
  6540.7568    6542.5640  0.2281    0.1229
  6544.0356    6545.8430  0.1626    1.3781
  6546.0698    6547.8780  0.3734    0.1222
  6552.8174    6554.6280  0.1124    0.1268
  6553.6260    6555.4360  0.2391    2.6673
  6555.9072    6557.7180  0.1826    0.1030
  6558.2837    6560.0950  0.4355    0.0992
  6562.7598    6564.5730  0.2261    1.1632
  6568.7891    6570.6040  0.1590    1.1619
  6577.2017    6579.0180  0.1906    1.5694
  6577.3760    6579.1930  0.2003    1.4609
  6578.1045    6579.9220  0.1398    0.1330
  6580.4399    6582.2580  0.3126    0.1343
  6583.7236    6585.5420  0.2576    0.1841
  6584.4878    6586.3070  0.2616    0.1384
  6596.6445    6598.4660  0.1754    0.6829
  6603.9956    6605.8200  0.1565    0.8587
  6604.2837    6606.1080  0.1729    0.7822
  6620.4541    6622.2820  0.1216    0.1128
  6627.6318    6629.4620  0.2520    0.3092
  6634.0483    6635.8800  0.1624    0.4170
  6634.4336    6636.2660  0.1622    0.3880
  6650.8125    6652.6490  0.1736    0.1224
  6661.6851    6663.5250  0.3978    0.1568
  6661.8638    6663.7030  0.2334    0.1623
  6667.3857    6669.2270  0.1695    0.2242
  6667.8667    6669.7080  0.1774    0.1841
  6699.0552    6700.9050  0.2198    0.1403
  6699.2856    6701.1350  0.1838    0.1210
  6699.6548    6701.5040  0.1841    0.1290
  6704.1064    6705.9570  0.1642    0.1711
  6704.6763    6706.5270  0.1656    0.1460
